search settings:
	vvarac Precision = 0.050 V
	vbias Precision = 0.050 V
	Acq. Frequency Start = 2.400 MHz
	Acq. Frequency Stop = 5.200 MHz
	Acq. Frequency Spacing = 0.010 MHz
	S21 Optimization Frequency Start = 2.500 MHz
	S21 Optimization Frequency Stop = 5.100 MHz
	vbias seed = -2.200
	vvarac seed = -1.000

freq(MHz)	 S21(dBmV)	 vbias(V)	 vvarac(V)
 2.4000,-3.7565,-2.350,5.000
 2.4100,-2.9965,-2.350,5.000
 2.4200,-2.0535,-2.350,5.000
 2.4300,-1.1728,-2.350,5.000
 2.4400,-0.1437,-2.350,5.000
 2.4500, 0.7930,-2.350,5.000
 2.4600, 1.7625,-2.350,5.000
 2.4700, 2.7340,-2.350,5.000
 2.4800, 3.4894,-2.350,5.000
 2.4900, 3.8910,-2.350,5.000
 2.5000, 4.0358,-2.300,4.950
 2.5100, 4.0553,-2.400,4.950
 2.5200, 4.0506,-2.500,4.950
 2.5300, 4.2162,-2.300,4.900
 2.5400, 4.2954,-2.350,4.900
 2.5500, 4.3389,-2.450,4.900
 2.5600, 4.2957,-2.550,4.900
 2.5700, 4.4639,-2.350,4.850
 2.5800, 4.5337,-2.400,4.850
 2.5900, 4.5777,-2.500,4.850
 2.6000, 4.6995,-2.300,4.800
 2.6100, 4.7249,-2.350,4.800
 2.6200, 4.7727,-2.500,4.800
 2.6300, 4.9035,-2.300,4.750
 2.6400, 4.9021,-2.400,4.750
 2.6500, 4.9730,-2.250,4.700
 2.6600, 5.0410,-2.300,4.700
 2.6700, 5.1606,-2.400,4.700
 2.6800, 5.1536,-2.250,4.650
 2.6900, 5.2124,-2.350,4.650
 2.7000, 5.2844,-2.400,4.650
 2.7100, 5.3599,-2.250,4.600
 2.7200, 5.3869,-2.300,4.600
 2.7300, 5.3730,-2.450,4.600
 2.7400, 5.4842,-2.300,4.550
 2.7500, 5.5250,-2.400,4.550
 2.7600, 5.5838,-2.250,4.500
 2.7700, 5.6460,-2.350,4.500
 2.7800, 5.6802,-2.250,4.450
 2.7900, 5.7184,-2.300,4.450
 2.8000, 5.7578,-2.400,4.450
 2.8100, 5.8184,-2.300,4.400
 2.8200, 5.8631,-2.400,4.400
 2.8300, 5.9113,-2.250,4.350
 2.8400, 5.9880,-2.300,4.350
 2.8500, 5.9708,-2.250,4.300
 2.8600, 6.0584,-2.350,4.300
 2.8700, 6.0695,-2.450,4.300
 2.8800, 6.1833,-2.300,4.250
 2.8900, 6.1521,-2.200,4.200
 2.9000, 6.2827,-2.300,4.200
 2.9100, 6.2492,-2.450,4.200
 2.9200, 6.3022,-2.350,4.150
 2.9300, 6.3326,-2.200,4.100
 2.9400, 6.4259,-2.300,4.100
 2.9500, 6.4521,-2.200,4.050
 2.9600, 6.4773,-2.300,4.050
 2.9700, 6.4484,-2.250,4.000
 2.9800, 6.5483,-2.300,4.000
 2.9900, 6.5153,-2.300,3.950
 3.0000, 6.5820,-2.350,3.950
 3.0100, 6.6487,-2.300,3.900
 3.0200, 6.6344,-2.400,3.900
 3.0300, 6.7104,-2.300,3.850
 3.0400, 6.7210,-2.200,3.800
 3.0500, 6.8001,-2.300,3.800
 3.0600, 6.8325,-2.250,3.750
 3.0700, 6.8525,-2.350,3.750
 3.0800, 6.8818,-2.300,3.700
 3.0900, 6.8908,-2.250,3.650
 3.1000, 6.9291,-2.300,3.650
 3.1100, 6.9705,-2.250,3.600
 3.1200, 7.0113,-2.350,3.600
 3.1300, 7.0039,-2.350,3.550
 3.1400, 7.0634,-2.250,3.500
 3.1500, 7.0694,-2.300,3.500
 3.1600, 7.0952,-2.350,3.450
 3.1700, 7.1282,-2.250,3.400
 3.1800, 7.0907,-2.400,3.400
 3.1900, 7.1369,-2.300,3.350
 3.2000, 7.1618,-2.250,3.300
 3.2100, 7.1936,-2.350,3.300
 3.2200, 7.2618,-2.300,3.250
 3.2300, 7.2475,-2.250,3.200
 3.2400, 7.2605,-2.200,3.150
 3.2500, 7.2766,-2.350,3.150
 3.2600, 7.3182,-2.350,3.100
 3.2700, 7.3197,-2.250,3.050
 3.2800, 7.3097,-2.300,3.050
 3.2900, 7.2595,-2.450,3.050
 3.3000, 7.3369,-2.350,2.950
 3.3100, 7.5215,-2.300,2.900
 3.3200, 7.5181,-2.250,2.900
 3.3300, 8.0557,-2.300,2.850
 3.3400, 7.7612,-2.300,2.800
 3.3500, 7.7831,-2.350,2.800
 3.3600, 7.7302,-2.200,2.700
 3.3700, 7.4287,-2.100,2.650
 3.3800, 7.4217,-2.300,2.650
 3.3900, 7.4691,-2.300,2.600
 3.4000, 7.4536,-2.400,2.600
 3.4100, 7.4891,-2.350,2.550
 3.4200, 7.4802,-2.350,2.500
 3.4300, 7.4919,-2.300,2.450
 3.4400, 7.4810,-2.300,2.400
 3.4500, 7.5089,-2.250,2.350
 3.4600, 7.4987,-2.200,2.300
 3.4700, 7.4996,-2.350,2.300
 3.4800, 7.5441,-2.150,2.200
 3.4900, 7.5401,-2.300,2.200
 3.5000, 7.4747,-2.350,2.200
 3.5100, 7.5379,-2.300,2.150
 3.5200, 7.5286,-2.300,2.100
 3.5300, 7.5039,-2.350,2.050
 3.5400, 7.5770,-2.300,2.000
 3.5500, 7.5193,-2.150,1.900
 3.5600, 7.5585,-2.350,1.950
 3.5700, 7.5112,-2.350,1.850
 3.5800, 7.5421,-2.400,1.850
 3.5900, 7.5188,-2.250,1.750
 3.6000, 7.5465,-2.300,1.700
 3.6100, 7.5109,-2.300,1.700
 3.6200, 7.4954,-2.300,1.650
 3.6300, 7.5258,-2.250,1.600
 3.6400, 7.5135,-2.250,1.550
 3.6500, 7.5078,-2.350,1.500
 3.6600, 7.4711,-2.300,1.450
 3.6700, 7.4740,-2.150,1.350
 3.6800, 7.4786,-2.250,1.350
 3.6900, 7.4581,-2.350,1.350
 3.7000, 7.4651,-2.300,1.300
 3.7100, 7.4579,-2.200,1.200
 3.7200, 7.4334,-2.350,1.200
 3.7300, 7.4385,-2.300,1.150
 3.7400, 7.3796,-2.150,1.050
 3.7500, 7.4121,-2.300,1.050
 3.7600, 7.4180,-2.300,1.000
 3.7700, 7.3926,-2.150,0.900
 3.7800, 7.3691,-2.300,0.900
 3.7900, 7.3467,-2.250,0.850
 3.8000, 7.3461,-2.300,0.800
 3.8100, 7.3256,-2.300,0.750
 3.8200, 7.3955,-2.250,0.700
 3.8300, 7.3610,-2.250,0.650
 3.8400, 7.2822,-2.300,0.600
 3.8500, 7.3152,-2.100,0.500
 3.8600, 7.3047,-2.300,0.550
 3.8700, 7.2806,-2.250,0.450
 3.8800, 7.2411,-1.900,0.250
 3.8900, 7.2594,-2.300,0.400
 3.9000, 7.2154,-2.300,0.350
 3.9100, 7.1714,-2.100,0.200
 3.9200, 7.1484,-2.200,0.200
 3.9300, 7.1373,-2.300,0.200
 3.9400, 7.0866,-2.350,0.150
 3.9500, 7.0814,-2.300,0.100
 3.9600, 7.1146,-2.300,0.050
 3.9700, 6.9856,-2.400,0.050
 3.9800, 6.9889,-2.050,-0.150
 3.9900, 7.0194,-2.050,-0.200
 4.0000, 6.9761,-2.150,-0.200
 4.0100, 6.9440,-2.200,-0.250
 4.0200, 6.9123,-2.150,-0.300
 4.0300, 6.9734,-2.350,-0.250
 4.0400, 6.8566,-2.150,-0.400
 4.0500, 6.8646,-2.250,-0.400
 4.0600, 6.8557,-2.350,-0.400
 4.0700, 6.8033,-2.250,-0.500
 4.0800, 6.8138,-2.100,-0.600
 4.0900, 6.7811,-2.300,-0.550
 4.1000, 6.7710,-2.200,-0.700
 4.1100, 6.7501,-2.250,-0.700
 4.1200, 6.8257,-2.150,-0.800
 4.1300, 6.7395,-2.300,-0.750
 4.1400, 6.6803,-2.000,-0.950
 4.1500, 6.7777,-2.050,-1.000
 4.1600, 6.8147,-2.150,-1.000
 4.1700, 6.8381,-2.200,-1.000
 4.1800, 7.0564,-2.200,-1.000
 4.1900, 6.7758,-2.250,-1.050
 4.2000, 6.7393,-2.300,-1.050
 4.2100, 6.7782,-2.250,-1.150
 4.2200, 6.7277,-2.250,-1.200
 4.2300, 6.7000,-2.250,-1.250
 4.2400, 6.6642,-2.350,-1.250
 4.2500, 6.6729,-2.100,-1.450
 4.2600, 6.6519,-2.000,-1.500
 4.2700, 6.7328,-2.150,-1.500
 4.2800, 6.7542,-2.150,-1.550
 4.2900, 6.7482,-2.150,-1.600
 4.3000, 6.8312,-2.000,-1.750
 4.3100, 6.6118,-2.000,-1.750
 4.3200, 6.6157,-1.950,-1.900
 4.3300, 6.6772,-2.050,-1.850
 4.3400, 6.6326,-2.000,-1.950
 4.3500, 6.6073,-2.000,-2.000
 4.3600, 6.6538,-2.100,-1.950
 4.3700, 6.7020,-2.100,-2.050
 4.3800, 6.6914,-2.100,-2.050
 4.3900, 6.7330,-2.100,-2.150
 4.4000, 6.6488,-2.100,-2.150
 4.4100, 6.6876,-2.250,-2.150
 4.4200, 6.6268,-2.050,-2.300
 4.4300, 6.6222,-1.900,-2.400
 4.4400, 6.6196,-2.000,-2.450
 4.4500, 6.6561,-1.900,-2.500
 4.4600, 6.9350,-2.000,-2.550
 4.4700, 6.5933,-2.050,-2.450
 4.4800, 6.8022,-2.050,-2.600
 4.4900, 6.6976,-2.050,-2.600
 4.5000, 6.6436,-2.050,-2.700
 4.5100, 6.6711,-2.050,-2.700
 4.5200, 6.6685,-1.900,-2.850
 4.5300, 6.8146,-2.000,-2.900
 4.5400, 6.6949,-2.000,-2.900
 4.5500, 6.8463,-2.000,-2.950
 4.5600, 6.7445,-2.000,-3.000
 4.5700, 6.6331,-2.000,-3.050
 4.5800, 6.6853,-1.850,-3.200
 4.5900, 6.7401,-1.950,-3.250
 4.6000, 6.8673,-1.950,-3.200
 4.6100, 6.9121,-1.950,-3.250
 4.6200, 6.7063,-1.950,-3.350
 4.6300, 6.7677,-1.900,-3.500
 4.6400, 6.6895,-1.900,-3.550
 4.6500, 6.8447,-1.900,-3.450
 4.6600, 6.7923,-1.850,-3.700
 4.6700, 6.8270,-1.850,-3.700
 4.6800, 6.8867,-1.850,-3.700
 4.6900, 6.8112,-1.800,-3.800
 4.7000, 6.7244,-1.750,-3.850
 4.7100, 6.6931,-1.750,-3.850
 4.7200, 6.5078,-1.800,-3.950
 4.7300, 6.5698,-2.000,-3.800
 4.7400, 6.5409,-1.850,-3.950
 4.7500, 6.5033,-1.900,-4.000
 4.7600, 6.4675,-1.850,-4.050
 4.7700, 6.5155,-1.850,-4.150
 4.7800, 6.4835,-2.050,-4.050
 4.7900, 6.4762,-1.850,-4.250
 4.8000, 6.4132,-1.850,-4.300
 4.8100, 6.4598,-1.950,-4.300
 4.8200, 6.5083,-1.950,-4.350
 4.8300, 6.4618,-2.100,-4.300
 4.8400, 6.4152,-1.900,-4.400
 4.8500, 6.4015,-2.050,-4.450
 4.8600, 6.4925,-1.800,-4.700
 4.8700, 6.4013,-2.050,-4.550
 4.8800, 6.3916,-1.950,-4.650
 4.8900, 6.4542,-2.000,-4.700
 4.9000, 6.3461,-2.050,-4.700
 4.9100, 6.4241,-1.950,-4.850
 4.9200, 6.3584,-2.000,-4.800
 4.9300, 6.3653,-1.950,-4.850
 4.9400, 6.2939,-1.950,-4.950
 4.9500, 6.2527,-2.050,-4.900
 4.9600, 6.3062,-2.050,-5.000
 4.9700, 6.2443,-2.100,-5.000
 4.9800, 6.1252,-2.050,-5.000
 4.9900, 6.1177,-2.150,-5.000
 5.0000, 6.0975,-2.200,-5.000
 5.0100, 5.8416,-2.200,-5.000
 5.0200, 5.6361,-2.200,-5.000
 5.0300, 5.4802,-2.200,-5.000
 5.0400, 5.2135,-2.200,-5.000
 5.0500, 4.8980,-2.200,-5.000
 5.0600, 4.7189,-2.200,-5.000
 5.0700, 4.3895,-2.200,-5.000
 5.0800, 4.0410,-2.200,-5.000
 5.0900, 3.7809,-2.200,-5.000
 5.1000, 3.4702,-2.200,-5.000
 5.1100, 3.0613,-2.200,-5.000
 5.1200, 2.7095,-2.200,-5.000
 5.1300, 2.3890,-2.200,-5.000
 5.1400, 2.0462,-2.200,-5.000
 5.1500, 1.6966,-2.200,-5.000
 5.1600, 1.3760,-2.200,-5.000
 5.1700, 0.9741,-2.200,-5.000
 5.1800, 0.6776,-2.200,-5.000
 5.1900, 0.4978,-2.200,-5.000
 5.2000, 0.1027,-2.200,-5.000
