settings:
	vvarac: start=3.000 stop=4.900 spacing=0.010
	vbias: start=-2.600 stop=0.000 spacing=10.000

freq(MHz)	 peak-voltage(mV)	 vvarac(V)	 vbias(V)
 1.5000,11.7846,  4.900, -2.600
 1.5020,12.0753,  4.900, -2.600
 1.5040,12.5411,  4.900, -2.600
 1.5060,12.7515,  4.900, -2.600
 1.5080,13.0959,  4.900, -2.600
 1.5100,13.3905,  4.900, -2.600
 1.5120,13.6756,  4.900, -2.600
 1.5140,14.2248,  4.900, -2.600
 1.5160,14.6685,  4.900, -2.600
 1.5180,15.1202,  4.900, -2.600
 1.5200,15.4623,  4.900, -2.600
 1.5220,16.0256,  4.900, -2.600
 1.5240,16.2518,  4.900, -2.600
 1.5260,16.9273,  4.900, -2.600
 1.5280,17.5223,  4.900, -2.600
 1.5300,18.0114,  4.900, -2.600
 1.5320,18.5990,  4.900, -2.600
 1.5340,19.0400,  4.900, -2.600
 1.5360,19.5410,  4.900, -2.600
 1.5380,20.4258,  4.900, -2.600
 1.5400,20.8479,  4.900, -2.600
 1.5420,21.6774,  4.900, -2.600
 1.5440,22.1461,  4.900, -2.600
 1.5460,22.9562,  4.900, -2.600
 1.5480,23.4585,  4.900, -2.600
 1.5500,24.3874,  4.900, -2.600
 1.5520,25.0740,  4.900, -2.600
 1.5540,25.7262,  4.900, -2.600
 1.5560,26.3460,  4.900, -2.600
 1.5580,26.9144,  4.900, -2.600
 1.5600,27.6012,  4.900, -2.600
 1.5620,28.2941,  4.900, -2.600
 1.5640,28.8553,  4.900, -2.600
 1.5660,29.3188,  4.900, -2.600
 1.5680,29.8040,  4.900, -2.600
 1.5700,30.1605,  4.900, -2.600
 1.5720,30.3807,  4.900, -2.600
 1.5740,30.7205,  4.900, -2.600
 1.5760,30.8212,  4.900, -2.600
 1.5780,30.9707,  4.890, -2.600
 1.5800,31.1528,  4.890, -2.600
 1.5820,31.1785,  4.880, -2.600
 1.5840,31.3467,  4.880, -2.600
 1.5860,31.5444,  4.880, -2.600
 1.5880,31.6635,  4.870, -2.600
 1.5900,31.7496,  4.870, -2.600
 1.5920,32.0320,  4.860, -2.600
 1.5940,32.0585,  4.860, -2.600
 1.5960,32.3246,  4.850, -2.600
 1.5980,32.4556,  4.850, -2.600
 1.6000,32.5342,  4.840, -2.600
 1.6020,32.6284,  4.830, -2.600
 1.6040,32.8356,  4.830, -2.600
 1.6060,32.9986,  4.830, -2.600
 1.6080,33.1162,  4.820, -2.600
 1.6100,33.3974,  4.810, -2.600
 1.6120,33.5831,  4.810, -2.600
 1.6140,33.5576,  4.800, -2.600
 1.6160,33.8437,  4.800, -2.600
 1.6180,33.8210,  4.800, -2.600
 1.6200,34.0531,  4.790, -2.600
 1.6220,34.3085,  4.790, -2.600
 1.6240,34.3324,  4.780, -2.600
 1.6260,34.5980,  4.770, -2.600
 1.6280,34.6982,  4.770, -2.600
 1.6300,34.9280,  4.770, -2.600
 1.6320,35.1817,  4.760, -2.600
 1.6340,35.2634,  4.750, -2.600
 1.6360,35.3819,  4.750, -2.600
 1.6380,35.4936,  4.740, -2.600
 1.6400,35.5809,  4.740, -2.600
 1.6420,35.8253,  4.740, -2.600
 1.6440,35.9666,  4.730, -2.600
 1.6460,36.1805,  4.720, -2.600
 1.6480,36.2542,  4.710, -2.600
 1.6500,36.5482,  4.710, -2.600
 1.6520,36.7428,  4.700, -2.600
 1.6540,36.9968,  4.700, -2.600
 1.6560,36.9054,  4.690, -2.600
 1.6580,37.1191,  4.690, -2.600
 1.6600,37.2429,  4.680, -2.600
 1.6620,37.4587,  4.670, -2.600
 1.6640,37.6106,  4.670, -2.600
 1.6660,37.8545,  4.660, -2.600
 1.6680,37.8418,  4.660, -2.600
 1.6700,38.0126,  4.660, -2.600
 1.6720,38.1447,  4.640, -2.600
 1.6740,38.4736,  4.640, -2.600
 1.6760,38.6410,  4.640, -2.600
 1.6780,38.6725,  4.620, -2.600
 1.6800,38.8567,  4.630, -2.600
 1.6820,39.1574,  4.620, -2.600
 1.6840,39.3716,  4.600, -2.600
 1.6860,39.4819,  4.610, -2.600
 1.6880,39.6081,  4.600, -2.600
 1.6900,39.7836,  4.590, -2.600
 1.6920,39.9670,  4.580, -2.600
 1.6940,40.1529,  4.580, -2.600
 1.6960,40.3489,  4.580, -2.600
 1.6980,40.4055,  4.560, -2.600
 1.7000,40.7148,  4.560, -2.600
 1.7020,40.8137,  4.560, -2.600
 1.7040,41.1256,  4.550, -2.600
 1.7060,41.2643,  4.550, -2.600
 1.7080,41.4145,  4.540, -2.600
 1.7100,41.4940,  4.530, -2.600
 1.7120,41.6616,  4.530, -2.600
 1.7140,41.6368,  4.510, -2.600
 1.7160,42.0702,  4.510, -2.600
 1.7180,42.1469,  4.500, -2.600
 1.7200,42.4195,  4.500, -2.600
 1.7220,42.5524,  4.500, -2.600
 1.7240,42.7169,  4.490, -2.600
 1.7260,43.0859,  4.480, -2.600
 1.7280,43.0983,  4.480, -2.600
 1.7300,43.3804,  4.470, -2.600
 1.7320,43.6241,  4.460, -2.600
 1.7340,43.6241,  4.460, -2.600
 1.7360,43.9186,  4.450, -2.600
 1.7380,44.1452,  4.440, -2.600
 1.7400,44.1548,  4.430, -2.600
 1.7420,44.4780,  4.430, -2.600
 1.7440,44.6846,  4.420, -2.600
 1.7460,44.7719,  4.420, -2.600
 1.7480,44.8988,  4.400, -2.600
 1.7500,45.3546,  4.400, -2.600
 1.7520,45.3051,  4.400, -2.600
 1.7540,45.5259,  4.390, -2.600
 1.7560,45.7999,  4.380, -2.600
 1.7580,46.0219,  4.370, -2.600
 1.7600,46.2671,  4.370, -2.600
 1.7620,46.2376,  4.370, -2.600
 1.7640,46.4797,  4.350, -2.600
 1.7660,46.6010,  4.350, -2.600
 1.7680,46.7927,  4.350, -2.600
 1.7700,47.0981,  4.340, -2.600
 1.7720,47.2295,  4.330, -2.600
 1.7740,47.6099,  4.320, -2.600
 1.7760,47.4999,  4.310, -2.600
 1.7780,47.9099,  4.310, -2.600
 1.7800,48.0891,  4.300, -2.600
 1.7820,48.2130,  4.290, -2.600
 1.7840,48.4344,  4.280, -2.600
 1.7860,48.7234,  4.290, -2.600
 1.7880,48.9308,  4.280, -2.600
 1.7900,49.1396,  4.270, -2.600
 1.7920,49.1671,  4.260, -2.600
 1.7940,49.3967,  4.250, -2.600
 1.7960,49.5021,  4.250, -2.600
 1.7980,49.8225,  4.250, -2.600
 1.8000,49.9827,  4.240, -2.600
 1.8020,50.2769,  4.230, -2.600
 1.8040,50.4592,  4.210, -2.600
 1.8060,50.5952,  4.210, -2.600
 1.8080,51.0363,  4.200, -2.600
 1.8100,50.9495,  4.190, -2.600
 1.8120,51.2638,  4.190, -2.600
 1.8140,51.6404,  4.180, -2.600
 1.8160,51.6137,  4.170, -2.600
 1.8180,51.9872,  4.170, -2.600
 1.8200,51.8913,  4.160, -2.600
 1.8220,52.2440,  4.160, -2.600
 1.8240,52.3887,  4.150, -2.600
 1.8260,52.6236,  4.140, -2.600
 1.8280,52.6198,  4.130, -2.600
 1.8300,53.0165,  4.120, -2.600
 1.8320,53.3198,  4.120, -2.600
 1.8340,53.4301,  4.110, -2.600
 1.8360,53.4700,  4.100, -2.600
 1.8380,53.8630,  4.090, -2.600
 1.8400,54.0107,  4.090, -2.600
 1.8420,54.0949,  4.080, -2.600
 1.8440,54.3498,  4.070, -2.600
 1.8460,54.4850,  4.070, -2.600
 1.8480,54.7495,  4.060, -2.600
 1.8500,55.1362,  4.050, -2.600
 1.8520,55.1201,  4.040, -2.600
 1.8540,55.2909,  4.040, -2.600
 1.8560,55.6540,  4.030, -2.600
 1.8580,55.8821,  4.020, -2.600
 1.8600,56.0017,  4.010, -2.600
 1.8620,56.2495,  3.990, -2.600
 1.8640,56.4214,  3.990, -2.600
 1.8660,56.7042,  3.980, -2.600
 1.8680,56.8368,  3.980, -2.600
 1.8700,56.9590,  3.980, -2.600
 1.8720,57.3545,  3.970, -2.600
 1.8740,57.4356,  3.950, -2.600
 1.8760,57.9355,  3.940, -2.600
 1.8780,58.0333,  3.930, -2.600
 1.8800,58.1935,  3.920, -2.600
 1.8820,58.2963,  3.910, -2.600
 1.8840,58.6517,  3.900, -2.600
 1.8860,59.0357,  3.890, -2.600
 1.8880,59.1821,  3.880, -2.600
 1.8900,59.2697,  3.880, -2.600
 1.8920,59.5409,  3.870, -2.600
 1.8940,59.8433,  3.860, -2.600
 1.8960,60.0502,  3.850, -2.600
 1.8980,60.3295,  3.850, -2.600
 1.9000,60.5255,  3.830, -2.600
 1.9020,60.6981,  3.820, -2.600
 1.9040,60.7853,  3.830, -2.600
 1.9060,61.1555,  3.800, -2.600
 1.9080,61.3884,  3.800, -2.600
 1.9100,61.5751,  3.800, -2.600
 1.9120,61.7410,  3.780, -2.600
 1.9140,62.2917,  3.780, -2.600
 1.9160,62.3404,  3.770, -2.600
 1.9180,62.6062,  3.750, -2.600
 1.9200,62.7797,  3.750, -2.600
 1.9220,62.8325,  3.750, -2.600
 1.9240,63.1975,  3.740, -2.600
 1.9260,63.4186,  3.720, -2.600
 1.9280,63.8376,  3.710, -2.600
 1.9300,63.8407,  3.710, -2.600
 1.9320,64.1303,  3.700, -2.600
 1.9340,64.5757,  3.690, -2.600
 1.9360,64.6712,  3.680, -2.600
 1.9380,64.7859,  3.660, -2.600
 1.9400,65.2433,  3.660, -2.600
 1.9420,65.2345,  3.650, -2.600
 1.9440,65.5872,  3.640, -2.600
 1.9460,65.9691,  3.640, -2.600
 1.9480,66.0745,  3.620, -2.600
 1.9500,66.4636,  3.620, -2.600
 1.9520,66.6880,  3.610, -2.600
 1.9540,67.1741,  3.600, -2.600
 1.9560,67.2161,  3.600, -2.600
 1.9580,67.2201,  3.580, -2.600
 1.9600,67.5754,  3.570, -2.600
 1.9620,67.9641,  3.570, -2.600
 1.9640,68.2181,  3.550, -2.600
 1.9660,68.2745,  3.540, -2.600
 1.9680,68.6257,  3.530, -2.600
 1.9700,68.8527,  3.530, -2.600
 1.9720,69.1013,  3.520, -2.600
 1.9740,69.4206,  3.500, -2.600
 1.9760,69.5243,  3.510, -2.600
 1.9780,69.8241,  3.480, -2.600
 1.9800,70.0605,  3.470, -2.600
 1.9820,70.4363,  3.480, -2.600
 1.9840,70.5112,  3.450, -2.600
 1.9860,70.7884,  3.450, -2.600
 1.9880,70.9843,  3.450, -2.600
 1.9900,71.3360,  3.430, -2.600
 1.9920,71.5863,  3.420, -2.600
 1.9940,71.9425,  3.420, -2.600
 1.9960,72.0905,  3.400, -2.600
 1.9980,72.5679,  3.390, -2.600
 2.0000,72.6468,  3.380, -2.600
 2.0020,73.0106,  3.370, -2.600
 2.0040,73.0632,  3.360, -2.600
 2.0060,73.3133,  3.370, -2.600
 2.0080,73.8269,  3.340, -2.600
 2.0100,73.8766,  3.330, -2.600
 2.0120,74.0295,  3.320, -2.600
 2.0140,74.3332,  3.310, -2.600
 2.0160,74.5063,  3.300, -2.600
 2.0180,74.9003,  3.300, -2.600
 2.0200,74.9918,  3.290, -2.600
 2.0220,75.2484,  3.270, -2.600
 2.0240,75.3625,  3.280, -2.600
 2.0260,75.7699,  3.250, -2.600
 2.0280,76.0851,  3.250, -2.600
 2.0300,76.2646,  3.230, -2.600
 2.0320,76.6958,  3.220, -2.600
 2.0340,76.8508,  3.210, -2.600
 2.0360,77.0615,  3.210, -2.600
 2.0380,77.1930,  3.200, -2.600
 2.0400,77.5287,  3.190, -2.600
 2.0420,78.0426,  3.190, -2.600
 2.0440,78.1506,  3.170, -2.600
 2.0460,78.3129,  3.150, -2.600
 2.0480,78.5939,  3.160, -2.600
 2.0500,78.7689,  3.130, -2.600
 2.0520,79.0074,  3.120, -2.600
 2.0540,79.3226,  3.120, -2.600
 2.0560,79.4737,  3.100, -2.600
 2.0580,79.8491,  3.090, -2.600
 2.0600,80.0053,  3.090, -2.600
 2.0620,80.1583,  3.080, -2.600
 2.0640,80.5259,  3.050, -2.600
 2.0660,80.8333,  3.050, -2.600
 2.0680,80.8544,  3.060, -2.600
 2.0700,81.1012,  3.030, -2.600
 2.0720,81.4385,  3.030, -2.600
 2.0740,81.6636,  3.020, -2.600
 2.0760,81.8695,  3.000, -2.600
 2.0780,81.8561,  3.000, -2.600
 2.0800,81.8016,  3.020, -2.600
 2.0820,81.9051,  3.010, -2.600
 2.0840,82.1847,  3.000, -2.600
 2.0860,81.9509,  3.000, -2.600
 2.0880,80.9368,  3.000, -2.600
 2.0900,80.0539,  3.000, -2.600
 2.0920,79.0017,  3.000, -2.600
 2.0940,77.7103,  3.000, -2.600
 2.0960,76.4522,  3.000, -2.600
 2.0980,74.9088,  3.000, -2.600
 2.1000,73.4901,  3.000, -2.600
 2.1020,72.1071,  3.000, -2.600
 2.1040,70.5275,  3.000, -2.600
 2.1060,68.8662,  3.000, -2.600
 2.1080,67.5154,  3.000, -2.600
 2.1100,65.9599,  3.000, -2.600
 2.1120,64.4818,  3.000, -2.600
 2.1140,62.6706,  3.000, -2.600
 2.1160,61.3877,  3.000, -2.600
 2.1180,59.8076,  3.000, -2.600
 2.1200,58.4452,  3.000, -2.600
 2.1220,56.9659,  3.000, -2.600
 2.1240,55.7878,  3.000, -2.600
 2.1260,54.3683,  3.000, -2.600
 2.1280,53.3798,  3.000, -2.600
 2.1300,52.1168,  3.000, -2.600
 2.1320,50.8243,  3.000, -2.600
 2.1340,49.3999,  3.000, -2.600
 2.1360,48.1700,  3.000, -2.600
 2.1380,46.9018,  3.000, -2.600
 2.1400,45.9222,  3.000, -2.600
 2.1420,44.9712,  3.000, -2.600
 2.1440,44.1586,  3.000, -2.600
 2.1460,43.2253,  3.000, -2.600
 2.1480,42.4672,  3.000, -2.600
 2.1500,41.6471,  3.000, -2.600
 2.1520,40.5165,  3.000, -2.600
 2.1540,40.1006,  3.000, -2.600
 2.1560,39.5539,  3.000, -2.600
 2.1580,38.8442,  3.000, -2.600
 2.1600,37.8176,  3.000, -2.600
 2.1620,37.4166,  3.000, -2.600
 2.1640,36.7393,  3.000, -2.600
 2.1660,35.6356,  3.000, -2.600
 2.1680,35.4306,  3.000, -2.600
 2.1700,34.8971,  3.000, -2.600
 2.1720,34.1980,  3.000, -2.600
 2.1740,33.5330,  3.000, -2.600
 2.1760,33.0473,  3.000, -2.600
 2.1780,32.6055,  3.000, -2.600
 2.1800,32.0549,  3.000, -2.600
 2.1820,31.5529,  3.000, -2.600
 2.1840,31.1879,  3.000, -2.600
 2.1860,30.7361,  3.000, -2.600
 2.1880,30.2106,  3.000, -2.600
 2.1900,29.8062,  3.000, -2.600
 2.1920,29.6015,  3.000, -2.600
 2.1940,29.0084,  3.000, -2.600
 2.1960,28.6059,  3.000, -2.600
 2.1980,28.0784,  3.000, -2.600
 2.2000,27.8069,  3.000, -2.600
