search settings:
	Cpar Precision = 10
	Cser Precision = 2
	Acq. Frequency Start = 3.800 MHz
	Acq. Frequency Stop = 4.700 MHz
	Acq. Frequency Spacing = 0.001 MHz
	S11 Optimization Frequency Start = 4.00 MHz
	S11 Optimization Frequency Stop = 4.50 MHz
	Cpar seed = 2460 (929.0 pF)
	Cser seed = 444 (197.0 pF)

freq(MHz)	 S11(dB)	 Cpar(digit)	 Cser(digit)
 3.8000,-3.6574,   2600,    480
 3.8010,-3.6822,   2540,    480
 3.8020,-3.6857,   2600,    482
 3.8030,-3.7186,   2560,    486
 3.8040,-3.6714,   2580,    478
 3.8050,-3.6816,   2560,    486
 3.8060,-3.7638,   2510,    470
 3.8070,-3.7457,   2520,    468
 3.8080,-3.7863,   2580,    470
 3.8090,-3.7976,   2580,    478
 3.8100,-3.7557,   2520,    476
 3.8110,-3.7984,   2560,    478
 3.8120,-3.8120,   2570,    480
 3.8130,-3.8618,   2560,    484
 3.8140,-3.8135,   2500,    472
 3.8150,-3.8183,   2500,    474
 3.8160,-3.8264,   2560,    478
 3.8170,-3.8219,   2560,    484
 3.8180,-3.8457,   2560,    482
 3.8190,-3.7877,   2510,    472
 3.8200,-3.8250,   2560,    482
 3.8210,-3.7797,   2500,    474
 3.8220,-3.7826,   2560,    476
 3.8230,-3.7934,   2560,    480
 3.8240,-3.7920,   2560,    480
 3.8250,-3.8126,   2560,    480
 3.8260,-3.7695,   2500,    472
 3.8270,-3.7909,   2560,    480
 3.8280,-3.7089,   2490,    470
 3.8290,-3.7595,   2490,    472
 3.8300,-3.7074,   2490,    472
 3.8310,-3.7491,   2560,    470
 3.8320,-3.7709,   2560,    472
 3.8330,-3.7436,   2480,    472
 3.8340,-3.7434,   2480,    472
 3.8350,-3.7419,   2480,    472
 3.8360,-3.7389,   2470,    472
 3.8370,-3.7205,   2480,    468
 3.8380,-3.7137,   2470,    468
 3.8390,-3.7143,   2470,    468
 3.8400,-3.7062,   2370,    478
 3.8410,-3.7340,   2450,    470
 3.8420,-3.7070,   2420,    470
 3.8430,-3.6642,   2480,    466
 3.8440,-3.6415,   2450,    470
 3.8450,-3.6438,   2470,    464
 3.8460,-3.6180,   2420,    470
 3.8470,-3.6818,   2450,    470
 3.8480,-3.6021,   2300,    476
 3.8490,-3.6091,   2380,    478
 3.8500,-3.6815,   2380,    478
 3.8510,-3.6023,   2440,    470
 3.8520,-3.6035,   2300,    476
 3.8530,-3.5630,   2380,    478
 3.8540,-3.5984,   2440,    470
 3.8550,-3.5707,   2350,    474
 3.8560,-3.6484,   2370,    478
 3.8570,-3.6483,   2370,    478
 3.8580,-3.6195,   2380,    474
 3.8590,-3.6708,   2380,    480
 3.8600,-3.6332,   2380,    470
 3.8610,-3.6708,   2380,    476
 3.8620,-3.6398,   2390,    470
 3.8630,-3.6676,   2270,    472
 3.8640,-3.6894,   2350,    472
 3.8650,-3.7507,   2300,    476
 3.8660,-3.6900,   2290,    470
 3.8670,-3.7176,   2280,    476
 3.8680,-3.7019,   2280,    474
 3.8690,-3.7431,   2360,    476
 3.8700,-3.6937,   2350,    470
 3.8710,-3.7197,   2270,    476
 3.8720,-3.7160,   2290,    478
 3.8730,-3.6940,   2370,    480
 3.8740,-3.6913,   2290,    476
 3.8750,-3.7355,   2330,    478
 3.8760,-3.7109,   2300,    474
 3.8770,-3.6753,   2340,    476
 3.8780,-3.6767,   2280,    476
 3.8790,-3.6923,   2330,    478
 3.8800,-3.7337,   2330,    478
 3.8810,-3.6767,   2270,    476
 3.8820,-3.6751,   2320,    478
 3.8830,-3.6752,   2320,    478
 3.8840,-3.6655,   2330,    476
 3.8850,-3.6736,   2320,    478
 3.8860,-3.6728,   2320,    478
 3.8870,-3.6555,   2260,    476
 3.8880,-3.6556,   2260,    476
 3.8890,-3.6475,   2320,    476
 3.8900,-3.5933,   2320,    476
 3.8910,-3.5928,   2320,    476
 3.8920,-3.6389,   2260,    474
 3.8930,-3.5990,   2270,    472
 3.8940,-3.5758,   2320,    474
 3.8950,-3.6138,   2250,    466
 3.8960,-3.5524,   2280,    468
 3.8970,-3.5592,   2260,    472
 3.8980,-4.0575,   2720,    494
 3.8990,-13.4956,   2720,    494
 3.9000,-11.7280,   2720,    494
 3.9010,-11.8024,   2720,    494
 3.9020,-12.8380,   2710,    494
 3.9030,-13.1215,   2720,    492
 3.9040,-12.0376,   2720,    494
 3.9050,-12.1138,   2720,    494
 3.9060,-13.0126,   2720,    486
 3.9070,-13.3806,   2710,    490
 3.9080,-12.3639,   2720,    494
 3.9090,-12.9662,   2710,    486
 3.9100,-13.1472,   2720,    484
 3.9110,-13.4577,   2700,    494
 3.9120,-12.6750,   2720,    494
 3.9130,-12.8070,   2720,    494
 3.9140,-12.9270,   2710,    482
 3.9150,-13.5408,   2700,    492
 3.9160,-13.1029,   2720,    494
 3.9170,-13.2057,   2720,    494
 3.9180,-13.3094,   2720,    494
 3.9190,-13.4104,   2720,    494
 3.9200,-13.5166,   2720,    494
 3.9210,-13.3470,   2720,    494
 3.9220,-13.4091,   2710,    494
 3.9230,-13.5583,   2710,    494
 3.9240,-13.6447,   2720,    494
 3.9250,-13.7889,   2720,    494
 3.9260,-13.9303,   2720,    494
 3.9270,-13.9911,   2720,    494
 3.9280,-14.1634,   2720,    494
 3.9290,-14.2481,   2720,    494
 3.9300,-14.6269,   2720,    494
 3.9310,-14.6865,   2720,    494
 3.9320,-14.4020,   2720,    494
 3.9330,-14.6637,   2710,    494
 3.9340,-14.7745,   2710,    494
 3.9350,-15.2525,   2720,    494
 3.9360,-15.4185,   2720,    494
 3.9370,-15.5723,   2720,    494
 3.9380,-15.7440,   2720,    494
 3.9390,-15.9101,   2720,    494
 3.9400,-16.0156,   2720,    494
 3.9410,-16.1655,   2720,    494
 3.9420,-16.3192,   2720,    494
 3.9430,-16.4832,   2720,    494
 3.9440,-16.6667,   2720,    494
 3.9450,-16.8143,   2720,    494
 3.9460,-17.0677,   2720,    494
 3.9470,-17.2790,   2720,    494
 3.9480,-17.5013,   2720,    494
 3.9490,-17.7629,   2720,    494
 3.9500,-17.8294,   2720,    494
 3.9510,-17.6629,   2720,    494
 3.9520,-17.8429,   2710,    494
 3.9530,-17.8751,   2710,    494
 3.9540,-18.0874,   2720,    494
 3.9550,-18.2912,   2720,    494
 3.9560,-18.4972,   2720,    494
 3.9570,-18.7590,   2720,    494
 3.9580,-19.0552,   2720,    494
 3.9590,-19.3374,   2720,    494
 3.9600,-19.6248,   2720,    494
 3.9610,-20.0219,   2720,    494
 3.9620,-20.3578,   2720,    494
 3.9630,-20.6916,   2720,    494
 3.9640,-21.0282,   2720,    494
 3.9650,-21.4375,   2720,    494
 3.9660,-21.7545,   2720,    494
 3.9670,-22.0802,   2720,    494
 3.9680,-22.5420,   2720,    494
 3.9690,-22.9744,   2720,    494
 3.9700,-23.4126,   2720,    494
 3.9710,-23.8974,   2720,    494
 3.9720,-24.3954,   2720,    494
 3.9730,-24.8911,   2720,    494
 3.9740,-25.5280,   2720,    494
 3.9750,-26.1808,   2720,    494
 3.9760,-26.7406,   2720,    494
 3.9770,-27.4999,   2720,    494
 3.9780,-28.3025,   2720,    494
 3.9790,-29.0744,   2720,    494
 3.9800,-29.9664,   2720,    494
 3.9810,-31.1100,   2720,    494
 3.9820,-32.2507,   2720,    494
 3.9830,-33.6479,   2720,    494
 3.9840,-35.1103,   2720,    494
 3.9850,-37.1396,   2720,    494
 3.9860,-39.5105,   2720,    494
 3.9870,-42.1721,   2720,    494
 3.9880,-42.3626,   2720,    494
 3.9890,-44.0922,   2720,    494
 3.9900,-44.1591,   2720,    494
 3.9910,-42.1322,   2720,    494
 3.9920,-45.3826,   2720,    492
 3.9930,-48.9798,   2720,    492
 3.9940,-51.7566,   2720,    490
 3.9950,-52.7467,   2720,    490
 3.9960,-57.9687,   2720,    486
 3.9970,-52.3567,   2710,    490
 3.9980,-57.5630,   2720,    488
 3.9990,-60.0548,   2710,    486
 4.0000,-50.2534,   2710,    488
 4.0010,-60.8343,   2710,    488
 4.0020,-48.7083,   2710,    484
 4.0030,-48.3605,   2710,    484
 4.0040,-45.1101,   2710,    482
 4.0050,-43.4023,   2700,    492
 4.0060,-44.6442,   2700,    490
 4.0070,-47.8784,   2700,    490
 4.0080,-51.0465,   2700,    478
 4.0090,-55.1430,   2700,    486
 4.0100,-49.8929,   2700,    488
 4.0110,-55.6858,   2700,    488
 4.0120,-53.9978,   2700,    484
 4.0130,-51.6730,   2700,    484
 4.0140,-49.6877,   2700,    482
 4.0150,-45.1401,   2700,    482
 4.0160,-53.2689,   2680,    478
 4.0170,-52.3222,   2680,    478
 4.0180,-58.6844,   2690,    478
 4.0190,-48.6341,   2680,    488
 4.0200,-65.6989,   2680,    484
 4.0210,-54.8095,   2680,    482
 4.0220,-52.5176,   2670,    478
 4.0230,-54.2369,   2690,    482
 4.0240,-48.2066,   2680,    480
 4.0250,-60.0578,   2670,    476
 4.0260,-53.2206,   2670,    482
 4.0270,-43.6486,   2670,    470
 4.0280,-44.9016,   2670,    470
 4.0290,-63.5815,   2670,    480
 4.0300,-45.5557,   2670,    480
 4.0310,-42.6844,   2670,    468
 4.0320,-41.0287,   2670,    466
 4.0330,-38.7788,   2670,    466
 4.0340,-36.3582,   2670,    464
 4.0350,-40.6140,   2660,    476
 4.0360,-46.4572,   2660,    476
 4.0370,-49.0638,   2660,    474
 4.0380,-51.4095,   2650,    474
 4.0390,-63.1345,   2660,    470
 4.0400,-56.9411,   2650,    470
 4.0410,-62.5272,   2660,    472
 4.0420,-53.9424,   2650,    472
 4.0430,-47.8139,   2650,    468
 4.0440,-44.3631,   2650,    466
 4.0450,-42.8879,   2650,    466
 4.0460,-39.0177,   2660,    464
 4.0470,-40.4761,   2660,    464
 4.0480,-40.6581,   2640,    476
 4.0490,-44.7725,   2640,    476
 4.0500,-47.0305,   2640,    474
 4.0510,-49.1069,   2640,    474
 4.0520,-58.5237,   2640,    470
 4.0530,-50.0181,   2640,    470
 4.0540,-57.3840,   2640,    472
 4.0550,-50.4095,   2640,    472
 4.0560,-51.0377,   2630,    474
 4.0570,-48.4162,   2630,    474
 4.0580,-64.0089,   2630,    470
 4.0590,-48.5978,   2630,    470
 4.0600,-60.2451,   2630,    472
 4.0610,-50.1589,   2630,    472
 4.0620,-47.6059,   2630,    468
 4.0630,-47.7377,   2620,    478
 4.0640,-46.3503,   2550,    478
 4.0650,-50.1299,   2620,    474
 4.0660,-57.4568,   2620,    476
 4.0670,-60.8864,   2620,    470
 4.0680,-53.1996,   2620,    470
 4.0690,-56.1045,   2620,    482
 4.0700,-47.2709,   2550,    470
 4.0710,-46.4677,   2550,    470
 4.0720,-50.8802,   2620,    480
 4.0730,-66.3512,   2550,    480
 4.0740,-47.9230,   2550,    480
 4.0750,-44.8197,   2540,    478
 4.0760,-49.8946,   2610,    476
 4.0770,-75.7747,   2610,    476
 4.0780,-53.1481,   2610,    474
 4.0790,-53.9469,   2610,    482
 4.0800,-63.2398,   2540,    474
 4.0810,-48.8729,   2540,    470
 4.0820,-51.5828,   2610,    480
 4.0830,-54.4284,   2610,    480
 4.0840,-57.9139,   2540,    480
 4.0850,-49.9780,   2540,    480
 4.0860,-46.6307,   2590,    478
 4.0870,-45.8715,   2590,    478
 4.0880,-51.1823,   2600,    476
 4.0890,-57.7792,   2600,    476
 4.0900,-60.4230,   2600,    474
 4.0910,-52.7503,   2590,    474
 4.0920,-57.3280,   2590,    474
 4.0930,-47.1791,   2530,    470
 4.0940,-54.7640,   2600,    480
 4.0950,-55.2726,   2600,    480
 4.0960,-72.7012,   2590,    480
 4.0970,-51.1703,   2520,    474
 4.0980,-49.6148,   2520,    470
 4.0990,-63.6140,   2520,    470
 4.1000,-47.9786,   2520,    472
 4.1010,-64.2353,   2520,    472
 4.1020,-49.6367,   2510,    474
 4.1030,-56.5596,   2510,    470
 4.1040,-52.6144,   2510,    470
 4.1050,-53.0478,   2510,    472
 4.1060,-56.0569,   2510,    472
 4.1070,-55.8046,   2580,    474
 4.1080,-50.9101,   2580,    470
 4.1090,-49.7745,   2580,    470
 4.1100,-49.2488,   2580,    472
 4.1110,-56.0265,   2580,    480
 4.1120,-48.4998,   2570,    476
 4.1130,-50.3681,   2570,    474
 4.1140,-54.8022,   2570,    474
 4.1150,-51.4293,   2570,    470
 4.1160,-52.1090,   2570,    470
 4.1170,-54.9540,   2500,    470
 4.1180,-54.1759,   2570,    472
 4.1190,-52.8857,   2500,    472
 4.1200,-51.6343,   2500,    472
 4.1210,-54.3991,   2500,    468
 4.1220,-49.9628,   2500,    468
 4.1230,-47.5801,   2500,    466
 4.1240,-49.2248,   2490,    470
 4.1250,-52.0860,   2490,    470
 4.1260,-47.0869,   2490,    472
 4.1270,-53.7229,   2490,    472
 4.1280,-50.1985,   2490,    468
 4.1290,-55.0437,   2490,    468
 4.1300,-56.1214,   2560,    470
 4.1310,-50.8089,   2560,    470
 4.1320,-55.5496,   2560,    472
 4.1330,-54.7971,   2560,    472
 4.1340,-48.6060,   2560,    468
 4.1350,-48.4945,   2560,    468
 4.1360,-45.6829,   2560,    466
 4.1370,-43.2753,   2560,    466
 4.1380,-46.0838,   2480,    470
 4.1390,-47.0175,   2480,    470
 4.1400,-45.4426,   2480,    472
 4.1410,-47.7976,   2480,    472
 4.1420,-51.1201,   2480,    468
 4.1430,-58.0969,   2480,    468
 4.1440,-58.5149,   2480,    466
 4.1450,-48.6983,   2480,    466
 4.1460,-46.3365,   2470,    472
 4.1470,-55.2001,   2470,    468
 4.1480,-51.4379,   2470,    468
 4.1490,-57.2135,   2470,    466
 4.1500,-45.9603,   2470,    466
 4.1510,-41.7779,   2470,    464
 4.1520,-45.4304,   2470,    464
 4.1530,-47.2403,   2470,    464
 4.1540,-44.0902,   2470,    464
 4.1550,-40.4489,   2470,    464
 4.1560,-37.7217,   2470,    464
 4.1570,-36.9011,   2470,    456
 4.1580,-37.0920,   2470,    456
 4.1590,-36.6572,   2470,    456
 4.1600,-38.2147,   2450,    470
 4.1610,-40.1438,   2450,    470
 4.1620,-41.8574,   2450,    470
 4.1630,-41.8771,   2450,    470
 4.1640,-40.3676,   2450,    470
 4.1650,-42.8305,   2450,    468
 4.1660,-46.2190,   2450,    468
 4.1670,-53.2369,   2450,    462
 4.1680,-52.1882,   2450,    466
 4.1690,-46.2118,   2450,    466
 4.1700,-46.6695,   2430,    468
 4.1710,-53.0339,   2430,    462
 4.1720,-59.9366,   2450,    464
 4.1730,-47.4061,   2450,    464
 4.1740,-42.8368,   2430,    464
 4.1750,-49.3811,   2430,    464
 4.1760,-58.0566,   2430,    464
 4.1770,-45.8924,   2430,    464
 4.1780,-58.0291,   2440,    462
 4.1790,-50.0433,   2440,    462
 4.1800,-43.5747,   2440,    466
 4.1810,-44.2256,   2440,    460
 4.1820,-50.7288,   2440,    464
 4.1830,-59.2119,   2440,    464
 4.1840,-58.2557,   2420,    462
 4.1850,-51.1100,   2420,    462
 4.1860,-43.9697,   2420,    466
 4.1870,-43.5499,   2420,    460
 4.1880,-49.0317,   2420,    464
 4.1890,-66.0096,   2420,    464
 4.1900,-47.7033,   2420,    464
 4.1910,-43.0625,   2420,    458
 4.1920,-43.3209,   2410,    462
 4.1930,-50.2693,   2410,    462
 4.1940,-56.3233,   2410,    462
 4.1950,-45.5490,   2410,    462
 4.1960,-42.1773,   2410,    460
 4.1970,-47.2341,   2410,    460
 4.1980,-57.0212,   2410,    464
 4.1990,-50.6128,   2410,    464
 4.2000,-44.1670,   2410,    458
 4.2010,-41.1872,   2410,    458
 4.2020,-38.6309,   2390,    470
 4.2030,-38.9297,   2390,    472
 4.2040,-39.9028,   2390,    468
 4.2050,-41.3278,   2390,    468
 4.2060,-44.2340,   2390,    468
 4.2070,-47.5525,   2390,    468
 4.2080,-55.4374,   2390,    466
 4.2090,-52.5937,   2400,    462
 4.2100,-49.2365,   2400,    466
 4.2110,-43.7467,   2380,    476
 4.2120,-46.9385,   2380,    476
 4.2130,-48.7716,   2380,    474
 4.2140,-69.3742,   2380,    474
 4.2150,-49.3661,   2380,    474
 4.2160,-50.6092,   2380,    470
 4.2170,-46.7825,   2380,    470
 4.2180,-54.1404,   2380,    472
 4.2190,-50.1257,   2380,    472
 4.2200,-46.5683,   2380,    468
 4.2210,-45.2088,   2380,    468
 4.2220,-43.4626,   2380,    466
 4.2230,-43.5862,   2370,    476
 4.2240,-45.1814,   2370,    474
 4.2250,-47.0721,   2370,    474
 4.2260,-49.4217,   2370,    470
 4.2270,-60.5473,   2370,    470
 4.2280,-47.0410,   2370,    470
 4.2290,-56.8394,   2370,    472
 4.2300,-51.4940,   2370,    472
 4.2310,-48.3117,   2370,    468
 4.2320,-47.1725,   2370,    468
 4.2330,-49.8977,   2300,    474
 4.2340,-47.8096,   2300,    474
 4.2350,-54.1448,   2300,    470
 4.2360,-51.7200,   2300,    470
 4.2370,-48.1746,   2360,    470
 4.2380,-68.4148,   2360,    470
 4.2390,-47.4819,   2360,    470
 4.2400,-54.2478,   2360,    472
 4.2410,-53.3524,   2360,    472
 4.2420,-47.6465,   2350,    474
 4.2430,-47.4070,   2350,    470
 4.2440,-68.5613,   2350,    470
 4.2450,-48.7789,   2350,    470
 4.2460,-51.1478,   2350,    472
 4.2470,-56.2146,   2350,    472
 4.2480,-57.0768,   2290,    470
 4.2490,-49.1431,   2290,    470
 4.2500,-49.1683,   2290,    472
 4.2510,-53.9309,   2290,    472
 4.2520,-45.3441,   2290,    472
 4.2530,-44.8615,   2290,    468
 4.2540,-42.4243,   2290,    468
 4.2550,-41.9693,   2340,    476
 4.2560,-44.9298,   2340,    476
 4.2570,-46.5617,   2340,    474
 4.2580,-51.4930,   2340,    474
 4.2590,-48.1416,   2270,    470
 4.2600,-68.4943,   2270,    470
 4.2610,-47.5356,   2280,    470
 4.2620,-56.3689,   2270,    472
 4.2630,-52.8150,   2280,    472
 4.2640,-52.8955,   2330,    470
 4.2650,-54.4377,   2330,    470
 4.2660,-48.0744,   2330,    472
 4.2670,-67.7421,   2330,    472
 4.2680,-46.7821,   2330,    472
 4.2690,-50.7182,   2330,    468
 4.2700,-45.6397,   2330,    466
 4.2710,-44.6522,   2330,    466
 4.2720,-41.4584,   2330,    466
 4.2730,-40.2422,   2260,    474
 4.2740,-40.2458,   2260,    474
 4.2750,-42.3031,   2260,    470
 4.2760,-45.6413,   2260,    470
 4.2770,-44.3919,   2260,    470
 4.2780,-44.8487,   2260,    472
 4.2790,-45.2692,   2260,    472
 4.2800,-47.7701,   2260,    468
 4.2810,-54.1453,   2260,    468
 4.2820,-54.9204,   2260,    466
 4.2830,-50.2407,   2260,    466
 4.2840,-44.0470,   2320,    468
 4.2850,-48.5508,   2320,    468
 4.2860,-51.2499,   2320,    462
 4.2870,-52.6940,   2260,    464
 4.2880,-44.5537,   2260,    464
 4.2890,-43.1869,   2250,    462
 4.2900,-50.4336,   2250,    462
 4.2910,-47.8406,   2320,    460
 4.2920,-50.5788,   2320,    464
 4.2930,-48.5781,   2310,    462
 4.2940,-42.7946,   2250,    460
 4.2950,-50.7268,   2250,    460
 4.2960,-48.1974,   2250,    458
 4.2970,-58.6126,   2310,    460
 4.2980,-44.4163,   2310,    458
 4.2990,-47.0483,   2310,    458
 4.3000,-39.1713,   2310,    458
 4.3010,-43.4524,   2250,    456
 4.3020,-41.5422,   2250,    456
 4.3030,-37.3674,   2310,    456
 4.3040,-35.6799,   2310,    456
 4.3050,-34.5762,   2310,    456
 4.3060,-32.3862,   2240,    462
 4.3070,-33.8484,   2240,    462
 4.3080,-34.3205,   2240,    462
 4.3090,-32.5801,   2240,    462
 4.3100,-32.9808,   2240,    460
 4.3110,-35.5267,   2240,    460
 4.3120,-38.3859,   2240,    460
 4.3130,-40.7461,   2240,    458
 4.3140,-43.7227,   2240,    458
 4.3150,-43.2946,   2240,    454
 4.3160,-45.8001,   2240,    454
 4.3170,-38.5897,   2230,    460
 4.3180,-48.2330,   2240,    456
 4.3190,-42.7521,   2240,    456
 4.3200,-47.9889,   2230,    454
 4.3210,-40.4688,   2230,    454
 4.3220,-39.8865,   2230,    456
 4.3230,-46.4306,   2230,    456
 4.3240,-36.6912,   2230,    456
 4.3250,-36.8828,   2230,    452
 4.3260,-34.5825,   2230,    452
 4.3270,-31.8830,   2230,    450
 4.3280,-35.4621,   2220,    460
 4.3290,-39.1095,   2220,    460
 4.3300,-40.3791,   2220,    458
 4.3310,-40.9217,   2220,    458
 4.3320,-36.1991,   2220,    454
 4.3330,-37.1147,   2220,    454
 4.3340,-31.7380,   2220,    456
 4.3350,-35.8738,   2220,    456
 4.3360,-34.2040,   2220,    456
 4.3370,-28.4286,   2220,    452
 4.3380,-23.2411,   2220,    452
 4.3390,-27.4266,   2220,    450
 4.3400,-26.3235,   2220,    450
 4.3410,-23.2295,   2210,    460
 4.3420,-29.3965,   2210,    460
 4.3430,-32.0565,   2210,    458
 4.3440,-40.4738,   2210,    458
 4.3450,-39.1591,   2210,    454
 4.3460,-49.5394,   2210,    454
 4.3470,-37.7427,   2210,    454
 4.3480,-39.3790,   2210,    456
 4.3490,-45.1310,   2210,    456
 4.3500,-36.2968,   2210,    456
 4.3510,-32.8948,   2210,    452
 4.3520,-33.1797,   2200,    458
 4.3530,-38.7100,   2200,    458
 4.3540,-38.5032,   2200,    458
 4.3550,-45.1901,   2200,    454
 4.3560,-42.3568,   2200,    454
 4.3570,-37.2882,   2200,    456
 4.3580,-56.5065,   2200,    456
 4.3590,-40.0085,   2200,    456
 4.3600,-44.1083,   2190,    454
 4.3610,-44.7256,   2190,    454
 4.3620,-36.3826,   2190,    456
 4.3630,-47.4545,   2190,    456
 4.3640,-41.0741,   2190,    456
 4.3650,-40.5612,   2190,    452
 4.3660,-38.9365,   2190,    452
 4.3670,-37.9093,   2190,    450
 4.3680,-34.9470,   2190,    450
 4.3690,-37.9455,   2170,    458
 4.3700,-38.5603,   2170,    458
 4.3710,-41.3110,   2170,    454
 4.3720,-46.7738,   2170,    454
 4.3730,-40.9037,   2170,    454
 4.3740,-43.9334,   2170,    456
 4.3750,-46.1766,   2170,    456
 4.3760,-42.6872,   2170,    452
 4.3770,-45.2612,   2170,    452
 4.3780,-42.4640,   2180,    454
 4.3790,-40.1578,   2180,    454
 4.3800,-41.3774,   2180,    456
 4.3810,-44.0973,   2180,    456
 4.3820,-41.6565,   2180,    452
 4.3830,-57.3189,   2180,    452
 4.3840,-40.6688,   2180,    452
 4.3850,-43.2710,   2180,    450
 4.3860,-38.6624,   2180,    450
 4.3870,-35.5380,   2160,    458
 4.3880,-35.2315,   2160,    454
 4.3890,-40.0152,   2160,    454
 4.3900,-41.6264,   2160,    454
 4.3910,-38.1469,   2160,    456
 4.3920,-41.4299,   2160,    456
 4.3930,-40.9592,   2160,    456
 4.3940,-49.2214,   2160,    452
 4.3950,-50.6504,   2160,    452
 4.3960,-46.3636,   2160,    450
 4.3970,-44.1214,   2160,    450
 4.3980,-39.1588,   2150,    456
 4.3990,-41.5164,   2150,    456
 4.4000,-41.9472,   2150,    452
 4.4010,-57.1788,   2150,    452
 4.4020,-44.0885,   2150,    450
 4.4030,-49.4954,   2150,    450
 4.4040,-41.5474,   2150,    450
 4.4050,-40.0052,   2140,    456
 4.4060,-39.7980,   2140,    452
 4.4070,-46.7519,   2140,    452
 4.4080,-46.1710,   2140,    452
 4.4090,-58.3121,   2140,    450
 4.4100,-43.8072,   2140,    450
 4.4110,-37.7489,   2140,    450
 4.4120,-35.1137,   2140,    448
 4.4130,-36.6260,   2140,    448
 4.4140,-40.9937,   2140,    448
 4.4150,-39.3672,   2140,    448
 4.4160,-36.7204,   2130,    454
 4.4170,-36.9554,   2130,    454
 4.4180,-37.8145,   2130,    456
 4.4190,-38.2927,   2130,    456
 4.4200,-39.4453,   2130,    452
 4.4210,-43.6532,   2130,    452
 4.4220,-43.3849,   2130,    450
 4.4230,-53.4512,   2130,    450
 4.4240,-43.7937,   2130,    450
 4.4250,-37.4301,   2130,    450
 4.4260,-36.7900,   2130,    448
 4.4270,-42.9814,   2130,    448
 4.4280,-46.5492,   2130,    448
 4.4290,-43.2519,   2130,    448
 4.4300,-38.5453,   2130,    448
 4.4310,-37.2816,   2120,    454
 4.4320,-34.3991,   2120,    454
 4.4330,-36.1691,   2110,    454
 4.4340,-37.7425,   2110,    454
 4.4350,-40.4588,   2120,    452
 4.4360,-39.8727,   2120,    452
 4.4370,-45.5171,   2120,    450
 4.4380,-43.7082,   2120,    450
 4.4390,-42.8189,   2110,    452
 4.4400,-42.9968,   2110,    450
 4.4410,-46.1589,   2110,    450
 4.4420,-46.5794,   2120,    448
 4.4430,-56.3070,   2120,    448
 4.4440,-44.1861,   2120,    448
 4.4450,-45.5183,   2110,    448
 4.4460,-54.1054,   2110,    448
 4.4470,-46.1633,   2110,    448
 4.4480,-39.9345,   2110,    448
 4.4490,-37.0187,   2110,    448
 4.4500,-33.8017,   2110,    448
 4.4510,-34.6143,   2100,    454
 4.4520,-35.4499,   2100,    454
 4.4530,-36.4981,   2100,    454
 4.4540,-35.4690,   2100,    454
 4.4550,-35.6678,   2100,    452
 4.4560,-37.6549,   2100,    452
 4.4570,-38.4760,   2100,    452
 4.4580,-40.0332,   2100,    452
 4.4590,-42.1657,   2100,    450
 4.4600,-42.9239,   2100,    450
 4.4610,-40.7326,   2100,    450
 4.4620,-37.9215,   2100,    450
 4.4630,-40.8600,   2100,    448
 4.4640,-46.6734,   2100,    448
 4.4650,-53.3399,   2100,    448
 4.4660,-44.0378,   2100,    448
 4.4670,-39.0534,   2100,    448
 4.4680,-37.5660,   2090,    452
 4.4690,-38.6407,   2090,    450
 4.4700,-39.5688,   2090,    450
 4.4710,-39.4229,   2090,    450
 4.4720,-37.1082,   2090,    450
 4.4730,-36.4468,   2090,    448
 4.4740,-40.6534,   2090,    448
 4.4750,-45.6568,   2090,    448
 4.4760,-45.6643,   2090,    448
 4.4770,-40.1589,   2090,    448
 4.4780,-36.3080,   2090,    448
 4.4790,-33.2795,   2090,    448
 4.4800,-31.5643,   2090,    448
 4.4810,-31.1620,   2080,    454
 4.4820,-32.0852,   2080,    454
 4.4830,-31.8164,   2080,    454
 4.4840,-31.4576,   2070,    454
 4.4850,-32.0232,   2080,    452
 4.4860,-33.5395,   2080,    446
 4.4870,-35.8979,   2080,    446
 4.4880,-38.0320,   2080,    446
 4.4890,-39.7590,   2070,    446
 4.4900,-39.5066,   2070,    446
 4.4910,-37.5289,   2070,    446
 4.4920,-34.5253,   2070,    446
 4.4930,-37.5959,   2080,    448
 4.4940,-39.5802,   2080,    448
 4.4950,-40.2019,   2080,    448
 4.4960,-38.9717,   2070,    448
 4.4970,-36.7302,   2070,    448
 4.4980,-33.8756,   2070,    448
 4.4990,-31.9689,   2070,    448
 4.5000,-30.4181,   2070,    442
 4.5010,-31.8774,   2060,    446
 4.5020,-34.0687,   2060,    446
 4.5030,-37.1167,   2060,    446
 4.5040,-40.8608,   2060,    446
 4.5050,-43.6799,   2060,    446
 4.5060,-40.7944,   2060,    446
 4.5070,-36.9769,   2060,    446
 4.5080,-34.2618,   2060,    444
 4.5090,-35.7144,   2060,    444
 4.5100,-37.2796,   2060,    444
 4.5110,-36.9666,   2060,    448
 4.5120,-35.9033,   2060,    448
 4.5130,-34.4855,   2060,    442
 4.5140,-33.4142,   2060,    442
 4.5150,-31.9924,   2060,    442
 4.5160,-31.5563,   2060,    440
 4.5170,-32.0643,   2060,    440
 4.5180,-32.0030,   2060,    440
 4.5190,-31.4269,   2060,    440
 4.5200,-30.6278,   2060,    440
 4.5210,-29.4941,   2060,    440
 4.5220,-28.4345,   2060,    440
 4.5230,-27.3885,   2060,    440
 4.5240,-26.3825,   2060,    440
 4.5250,-25.4190,   2060,    440
 4.5260,-24.5290,   2060,    440
 4.5270,-23.7567,   2060,    440
 4.5280,-23.0236,   2060,    440
 4.5290,-22.3469,   2060,    440
 4.5300,-21.5840,   2060,    440
 4.5310,-21.0220,   2060,    440
 4.5320,-20.4905,   2060,    440
 4.5330,-19.9670,   2060,    440
 4.5340,-19.4824,   2060,    440
 4.5350,-19.0156,   2060,    440
 4.5360,-18.5571,   2060,    440
 4.5370,-18.1482,   2060,    440
 4.5380,-17.7510,   2060,    440
 4.5390,-17.3580,   2060,    440
 4.5400,-16.9990,   2060,    440
 4.5410,-16.6501,   2060,    440
 4.5420,-16.3066,   2060,    440
 4.5430,-15.9907,   2060,    440
 4.5440,-15.6826,   2060,    440
 4.5450,-15.3905,   2060,    440
 4.5460,-15.1122,   2060,    440
 4.5470,-14.8244,   2060,    440
 4.5480,-14.5603,   2060,    440
 4.5490,-14.3036,   2060,    440
 4.5500,-14.0516,   2060,    440
 4.5510,-13.8233,   2060,    440
 4.5520,-13.5958,   2060,    440
 4.5530,-13.3663,   2060,    440
 4.5540,-13.1523,   2060,    440
 4.5550,-12.9508,   2060,    440
 4.5560,-12.7457,   2060,    440
 4.5570,-12.5733,   2060,    440
 4.5580,-12.3757,   2060,    440
 4.5590,-12.1841,   2060,    440
 4.5600,-12.0037,   2060,    440
 4.5610,-11.8188,   2060,    440
 4.5620,-11.6470,   2060,    440
 4.5630,-11.4865,   2060,    440
 4.5640,-11.3190,   2060,    440
 4.5650,-11.1657,   2060,    440
 4.5660,-11.0000,   2060,    440
 4.5670,-10.8420,   2060,    440
 4.5680,-10.6965,   2060,    440
 4.5690,-10.5545,   2060,    440
 4.5700,-10.4011,   2060,    440
 4.5710,-10.2635,   2060,    440
 4.5720,-10.1227,   2060,    440
 4.5730,-9.9958,   2060,    440
 4.5740,-9.8571,   2060,    440
 4.5750,-9.7312,   2060,    440
 4.5760,-9.6033,   2060,    440
 4.5770,-9.4778,   2060,    440
 4.5780,-9.3573,   2060,    440
 4.5790,-9.2377,   2060,    440
 4.5800,-9.1250,   2060,    440
 4.5810,-9.0064,   2060,    440
 4.5820,-8.8963,   2060,    440
 4.5830,-8.7891,   2060,    440
 4.5840,-8.6717,   2060,    440
 4.5850,-8.5669,   2060,    440
 4.5860,-8.4591,   2060,    440
 4.5870,-8.3607,   2060,    440
 4.5880,-8.2577,   2060,    440
 4.5890,-8.1613,   2060,    440
 4.5900,-8.0459,   2060,    440
 4.5910,-7.9410,   2060,    440
 4.5920,-7.8505,   2060,    440
 4.5930,-7.7374,   2060,    440
 4.5940,-7.6374,   2060,    440
 4.5950,-7.5416,   2060,    440
 4.5960,-7.4461,   2060,    440
 4.5970,-7.3504,   2060,    440
 4.5980,-7.2635,   2060,    440
 4.5990,-7.1799,   2060,    440
 4.6000,-7.0939,   2060,    440
 4.6010,-7.0127,   2060,    440
 4.6020,-6.9306,   2060,    440
 4.6030,-6.8561,   2060,    440
 4.6040,-6.7798,   2060,    440
 4.6050,-6.7089,   2060,    440
 4.6060,-6.6365,   2060,    440
 4.6070,-6.5624,   2060,    440
 4.6080,-6.4990,   2060,    440
 4.6090,-6.4271,   2060,    440
 4.6100,-6.3571,   2060,    440
 4.6110,-6.2930,   2060,    440
 4.6120,-6.2246,   2060,    440
 4.6130,-6.1611,   2060,    440
 4.6140,-6.0989,   2060,    440
 4.6150,-6.0368,   2060,    440
 4.6160,-5.9781,   2060,    440
 4.6170,-5.9139,   2060,    440
 4.6180,-5.8574,   2060,    440
 4.6190,-5.7958,   2060,    440
 4.6200,-5.7372,   2060,    440
 4.6210,-5.6886,   2060,    440
 4.6220,-5.6338,   2060,    440
 4.6230,-5.5786,   2060,    440
 4.6240,-5.5349,   2060,    440
 4.6250,-5.4820,   2060,    440
 4.6260,-5.4342,   2060,    440
 4.6270,-5.3849,   2060,    440
 4.6280,-5.3400,   2060,    440
 4.6290,-5.2951,   2060,    440
 4.6300,-5.2382,   2060,    440
 4.6310,-5.1891,   2060,    440
 4.6320,-5.1341,   2060,    440
 4.6330,-5.0798,   2060,    440
 4.6340,-5.0364,   2060,    440
 4.6350,-4.9793,   2060,    440
 4.6360,-4.9247,   2060,    440
 4.6370,-4.8694,   2060,    440
 4.6380,-4.8153,   2060,    440
 4.6390,-4.7666,   2060,    440
 4.6400,-4.7182,   2060,    440
 4.6410,-4.6720,   2060,    440
 4.6420,-4.6208,   2060,    440
 4.6430,-4.5809,   2060,    440
 4.6440,-4.5216,   2060,    440
 4.6450,-4.4959,   2060,    440
 4.6460,-4.4344,   2060,    440
 4.6470,-4.3921,   2060,    440
 4.6480,-4.3637,   2060,    440
 4.6490,-4.3167,   2060,    440
 4.6500,-4.2661,   2060,    440
 4.6510,-4.2394,   2060,    440
 4.6520,-4.2003,   2060,    440
 4.6530,-4.1579,   2060,    440
 4.6540,-4.1109,   2060,    440
 4.6550,-4.0639,   2060,    440
 4.6560,-4.0207,   2060,    440
 4.6570,-3.9888,   2060,    440
 4.6580,-3.9485,   2060,    440
 4.6590,-3.9137,   2060,    440
 4.6600,-3.8715,   2060,    440
 4.6610,-3.8326,   2060,    440
 4.6620,-3.7926,   2060,    440
 4.6630,-3.7600,   2060,    440
 4.6640,-3.7235,   2060,    440
 4.6650,-3.6942,   2060,    440
 4.6660,-3.6563,   2060,    440
 4.6670,-3.6240,   2060,    440
 4.6680,-3.5921,   2060,    440
 4.6690,-3.5662,   2060,    440
 4.6700,-3.5168,   2060,    440
 4.6710,-3.4907,   2060,    440
 4.6720,-3.4605,   2060,    440
 4.6730,-3.4273,   2060,    440
 4.6740,-3.3945,   2060,    440
 4.6750,-3.3627,   2060,    440
 4.6760,-3.3249,   2060,    440
 4.6770,-3.3046,   2060,    440
 4.6780,-3.2749,   2060,    440
 4.6790,-3.2396,   2060,    440
 4.6800,-3.2151,   2060,    440
 4.6810,-3.1931,   2060,    440
 4.6820,-3.1686,   2060,    440
 4.6830,-3.1451,   2060,    440
 4.6840,-3.1158,   2060,    440
 4.6850,-3.0885,   2060,    440
 4.6860,-3.0651,   2060,    440
 4.6870,-3.0352,   2060,    440
 4.6880,-2.9937,   2060,    440
 4.6890,-2.9708,   2060,    440
 4.6900,-2.9429,   2060,    440
 4.6910,-2.9174,   2060,    440
 4.6920,-2.8903,   2060,    440
 4.6930,-2.8660,   2060,    440
 4.6940,-2.8396,   2060,    440
 4.6950,-2.8139,   2060,    440
 4.6960,-2.7877,   2060,    440
 4.6970,-2.7626,   2060,    448
 4.6980,-2.7396,   2060,    448
 4.6990,-2.7230,   2060,    448
 4.7000,-2.6984,   2060,    448
